# ArXe Line List 8008.36A - 25668.0A
# units Angstrom
# wavelengths in IN VACUUM
# Gemini: lines from the GNIRS arc lamp identification plots http://www.gemini.edu/instrumentation/gnirs/calibrations#Arc
8008.36
8014.20
8016.99
8055.52
8084.68
8105.92
8112.23
8117.54
8266.79
8302.61
8379.91
8426.96
8497.69
8523.78
8608.14
8622.84
8637.02
8656.76
8670.32
8764.13
8783.03
8784.60
8786.17
8856.30
9077.91
9125.47
9151.19
9197.20
9227.03
9294.13
9356.79
9427.96
9536.78
9660.43
9787.18
9954.61
10054.80
10335.60
10472.90
10530.80
10676.50
10684.70	# Ar, Gemini
10703.90	# Ar, Gemini
10709.70
10736.81	# Ar, Gemini
10761.80	# Xe, Gemini
10776.30
#10810.00
#10815.90
#10819.50
#10825.70
#10832.40
10841.30
10864.00
#10870.30
#10883.90
#10888.90
10895.30
10898.30
#10926.40
10953.70
11081.90
11088.30
11109.50
11130.20
11144.20
11396.80
11445.00
11470.70
#11491.20
11494.36	# Xe, Gemini
11583.50
11617.30
11671.90
#11690.80
11722.70
11736.40
11745.50
11796.80
11798.80	# Xe, Gemini
11860.50
11887.70
11899.90
11946.60
#11947.10
11956.40
12029.90
12088.10	# Xe, Gemini
12115.60
12143.00
12238.60
12261.11	# Xe, Gemini
12346.80
12359.70
12406.20
12422.70	# Ar. Gemini
12442.70
12459.50
12491.10
12557.76	# Ar, Gemini
12593.70
12626.80
12705.70
12736.90
12749.70
12806.20
12936.70
12960.20
13011.80
13217.16	# Ar, Gemini
13231.70
13234.50
13276.30
13305.95	# Ar, Gemini
13316.80
13333.80
13370.80
13410.20
13503.10
13507.90
13546.86	# Xe, Gemini
13547.90
13577.30
13603.00
13660.80
13626.40
13682.30
13722.30
13829.50
13832.10
13911.30
13914.40
14097.50
14146.20
14253.10
14244.80
14260.80
14368.80
14599.70
14600.50
14638.40
14654.30
14738.83	# Xe, Gemini
14743.20
14736.80
15034.62	# Ar, Gemini
15050.60
15103.90
15176.80
15306.20
15333.50
15353.40
15357.31	# Ar, Gemini
15406.80
15422.60
15561.40
15739.21	# Ar, Gemini
15821.10	# Ar, Gemini
15887.50
15904.03	# Ar, Gemini
15983.90
15993.90
16044.28	# Xe, Gemini
16057.70
16127.06	# Ar, Gemini
16184.40
16268.51	# Ar, Gemini
16441.10
16524.40
16553.80
16732.60
16744.70
16945.20
17330.50
17369.82	# Xe, Gemini
17406.67	# Ar, Gemini
17449.80
17828.90
17892.07	# Ar, Gemini
17919.60
18432.80
18637.40
18750.10
18793.20
19822.90
19950.32	# Ar, Gemini
19971.20
20031.14	# Ar, Gemini
20035.97	# Ar, Gemini
20074.41	# Ar, Gemini
20192.60
20267.80
20322.60
20574.43	# Ar, Gemini
20621.90
20652.80
20739.30
#20741.00
20816.70
20818.72	# Ar, Gemini
20991.80
#21041.60
21338.70
21378.90
21475.90
21540.10
#21675.90
#21770.20
#21947.80
22045.60
22083.20
22118.70
#22215.70
#22260.90
22412.80
22539.70
22624.40
22884.10	# Xe, Gemini
#22978.40
23139.50
23199.60
23286.00
23447.30
23787.80
23851.50
#23911.20
23973.10
24450.40
24831.40
25494.60
25132.10
25152.80
25512.20
25668.00
