# units Angstrom
# wavelengths in IN VACUUM
# line list created from the ATRAN model with params WV=2mm, AM=1.5, R=15000
# to use for GNIRS M-band observations, R > 5000
44471.7
44507.2
44594.3
44633.7
44675.5
44762.7
44807.7
44838.8
44854.3
44902.9
44918.7
44935.0
44975.2
45003.2
45020.0
45091.0
45109.0
45127.0
45145.0
45220.2
45239.3
45258.8
45278.0
45297.6
45398.3
45418.5
45438.9
#45589.4 # added
45610.8
45632.3
45745.6
45768.7
45777.4
45792.0
45863.2
45876.3
45886.5
45910.2 # added
45949.9
46024.4
46100.0
46176.6
46222.8
46332.8
46412.4
46456.3
46493.1
46609.9
46742.5
46768.6
46789.6
46813.3
46826.4
46912.3
46999.4
47024.8 # added
47076.4
47087.8
47101.9
47177.2
#47214.3 # added
47267.5
47281.2
47319.7 # added
47358.7
47451.3
47545.0
47609.3
47640.2
47678.9
47735.6
47768.7
47931.1
47950.9
48059.3
48210.5
48222.1
48233.3
48294.6
48330.9
48367.2
48476.1
48512.5
48532.3
48548.8
48585.2
48621.6
48657.9
48694.3
48730.7
48767.0
48803.4
48839.8
48863.5
48876.1
48948.8
49079.7
49162.9
49343.6
49430.8
49767.7
49808.2
49859.5
49877.0
50026.9
50291.8
50485.6
50602.2
50989.7
51081.5
51118.7
51252.4
51301.8
51569.6
51600.9
51830.8
51871.6
51901.5
51914.2
52204.4
52230.7
52286.5
52559.4
52582.9
52837.4
53286.9
53719.2
53736.9
53871.8
53933.9
53983.9
