# units Angstrom
# wavelengths in IN VACUUM
# line list created from the ATRAN model with params WV=2mm, AM=1.5, R=1500
# to use for GNIRS M-band observations, 500 <= R < 2000)
45072.9
45181.7
45330.0
45454.4
45662.5
45727.8
45800.5
45872.6
45948.8
46025.6
46099.0
46176.6
46255.4
46333.0
46411.8
46571.6
46608.4
46744.4
46811.7
47172.8
47277.5
47459.7
47544.0
47637.2
47671.2
47763.0
47843.9
47909.2
48031.6
48132.2
48214.5
48247.8
48424.6
48532.8
48583.1
48620.5
48657.9
48693.2
48729.3
48768.0
48798.6
48865.3
48924.4
48987.0
49080.2
49162.4
49339.9
49431.0
50026.7
50193.3
50291.9
50483.7
50602.0
50838.0
50989.6
51147.4
51393.5
51481.2
51733.5
52007.6
52136.1
52359.1
52406.0
52509.4
52578.1
52766.4
52922.2
53057.5
53204.4
53288.0
53724.6
53724.6
53804.1
53870.8
53985.0
54432.4
55022.7
55313.0
55398.0
56032.5
