# units Angstrom
# wavelengths in IN VACUUM
# line list created from the ATRAN model with params WV=2mm, AM=1.5, R=1500
# to use for GNIRS L-band observations, 1000 <= R < 3000
28486.3
28544.1
28601.5
28721.0
28780.3
28841.9
28885.7
29008.9
29050.0
29141.9
29232.5
29386.9
29435.9
29475.6
29543.3
29714.5
29798.1
29972.1
30060.3
30326.8
30372.5
30545.2
30626.9
30817.3
30895.7
31057.1
31110.8
31154.2
31274.6
31396.9
31464.5
31555.1
31920.9
31986.3
32025.5
32242.0
32305.0
32402.5
32474.9
32608.3
32712.9
32801.1
32989.6
33049.8
33285.0
33344.7
33398.4
33460.9
33571.1
33629.4
33685.9
33803.5
33920.6
34041.5
34161.9
34283.2
34406.4
34535.7
34658.4
34780.2
34891.7
35036.4
35357.9
35400.9
35544.1
35691.6
35743.4
35816.2
35859.1
36073.3
36272.1
36470.9
36513.9
36627.3
36677.7
36755.7
36872.5
37137.1
37177.8
37303.3
37345.1
37417.0
37505.0
37547.4
37658.0
37709.8
37745.1
37898.3
37916.8
37942.2
38044.6
38139.5
38171.8
38193.1
38349.8
38510.1
38560.3
